*RAS_DATA_START
*RAS_HEADER_START
*CORR_POS_DB_NAME "C_DteX_ASC-6_15122015"
*CORR_POS_GONIO_RADIUS ""
*CORR_POS_NODE_INDEX01 ""
*CORR_POS_NODE_INDEX02 ""
*CORR_POS_NODE_INDEX03 ""
*CORR_POS_NODE_INDEX04 ""
*CORR_POS_NODE_INDEX05 ""
*CORR_POS_NODE_INDEX06 ""
*CORR_POS_NODE_INDEX07 ""
*CORR_POS_NODE_INDEX08 ""
*CORR_POS_NODE_INDEX09 ""
*CORR_POS_NODE_INDEX10 ""
*CORR_POS_NODE_INDEX11 ""
*CORR_POS_NODE_LABEL01 "Si(111)"
*CORR_POS_NODE_LABEL02 "Si(220)"
*CORR_POS_NODE_LABEL03 "Si(311)"
*CORR_POS_NODE_LABEL04 "Si(400)"
*CORR_POS_NODE_LABEL05 "Si(331)"
*CORR_POS_NODE_LABEL06 "Si(422)"
*CORR_POS_NODE_LABEL07 "Si(511)"
*CORR_POS_NODE_LABEL08 "Si(440)"
*CORR_POS_NODE_LABEL09 "Si(531)"
*CORR_POS_NODE_LABEL10 "Si(620)"
*CORR_POS_NODE_LABEL11 "Si(533)"
*CORR_POS_NODE_POS_CALC01 "28.4137"
*CORR_POS_NODE_POS_CALC02 "47.2707"
*CORR_POS_NODE_POS_CALC03 "56.0883"
*CORR_POS_NODE_POS_CALC04 "69.0934"
*CORR_POS_NODE_POS_CALC05 "76.3385"
*CORR_POS_NODE_POS_CALC06 "87.9915"
*CORR_POS_NODE_POS_CALC07 "94.9137"
*CORR_POS_NODE_POS_CALC08 "106.67"
*CORR_POS_NODE_POS_CALC09 "114.054"
*CORR_POS_NODE_POS_CALC10 "127.508"
*CORR_POS_NODE_POS_CALC11 "136.858"
*CORR_POS_NODE_POS_MEAS01 "28.4844"
*CORR_POS_NODE_POS_MEAS02 "47.3386"
*CORR_POS_NODE_POS_MEAS03 "56.1592"
*CORR_POS_NODE_POS_MEAS04 "69.1708"
*CORR_POS_NODE_POS_MEAS05 "76.4167"
*CORR_POS_NODE_POS_MEAS06 "88.0714"
*CORR_POS_NODE_POS_MEAS07 "94.9948"
*CORR_POS_NODE_POS_MEAS08 "106.756"
*CORR_POS_NODE_POS_MEAS09 "114.134"
*CORR_POS_NODE_POS_MEAS10 "127.59"
*CORR_POS_NODE_POS_MEAS11 "136.946"
*CORR_POS_OPT_ATTR "集中法"
*CORR_POS_PARAM_MU ""
*CORR_POS_PARAM_PL ""
*CORR_POS_SEMODEL_TYPE "0"
*CORR_POS_STANDARD_TYPE ""
*CORR_POS_VALUE_ANALYZER "None"
*CORR_POS_VALUE_CMONO "None"
*CORR_POS_VALUE_IMONO "None"
*CORR_POS_VALUE_IS "0.625deg"
*CORR_POS_VALUE_ISL "10.0mm"
*CORR_POS_VALUE_ISOLLER "2.5deg"
*CORR_POS_VALUE_RS1 "13.0mm"
*CORR_POS_VALUE_RS2 "13.0mm"
*CORR_POS_VALUE_RSOLLER "2.5deg"
*CORR_POS_XG_FOCUS_L ""
*CORR_POS_XG_WAVE_TYPE ""
*CORR_POS_XG_WAVE_VALUE ""
*DISP_FMT_X "%.2f"
*DISP_FMT_Y "%.0f"
*DISP_FULLSCALE "201095.0000000000"
*DISP_LINE_COLOR "255.0000000000"
*DISP_LINE_STYLE "0.0000000000"
*DISP_LINE_WIDTH "0.2500000000"
*DISP_NOTE "Collected Data-2"
*DISP_OFFSET_Y "0.0000000000"
*DISP_PEAKSEARCH_UNIT_Y "cps"
*DISP_RANGE_BOTTOM "0.0000000000"
*DISP_RANGE_LEFT "5.0000000000"
*DISP_RANGE_LOGCUTOFF "0.0100000000"
*DISP_RANGE_RIGHT "90.0000000000"
*DISP_RANGE_TOP "201095.0000000000"
*DISP_SCALE_MODE_Y "0.0000000000"
*DISP_TAB_NAME "Theta/2-Theta"
*DISP_TITLE_Y "Intensity"
*DISP_UNIT_Y "cps"
*DISP_WINDOW_NAME "MSG_MACROENGINE"
*FILE_COMMENT " "
*FILE_MD5 ""
*FILE_MEMO " "
*FILE_OPERATOR "RIGAKU"
*FILE_SAMPLE "CuOCuCl2"
*FILE_TYPE "RAS_RAW"
*FILE_USERGROUP "System Manager"
*FILE_VERSION "1.0000000000"
*HW_ATTACHMENT_ID "ATT1031"
*HW_ATTACHMENT_NAME "6サンプルチェンジャ|ASC-6"
*HW_COUNTER_ID-0 "CUT0025"
*HW_COUNTER_ID-1 "CUT0020"
*HW_COUNTER_ID-2 "CUT0020"
*HW_COUNTER_ID-3 "CMC0021"
*HW_COUNTER_NAME-0 "D/teX Ultra|D/teX Ultra"
*HW_COUNTER_NAME-1 "None|None"
*HW_COUNTER_NAME-2 "None|None"
*HW_COUNTER_NAME-3 "検出器モノクロメータ|Detector monochromator"
*HW_COUNTER_SELECT_NAME "D/teX Ultra|D/teX Ultra"
*HW_GONIOMETER_ID "GON0070"
*HW_GONIOMETER_NAME "MiniFlex 300/600|MiniFlex 300/600"
*HW_GONIOMETER_RADIUS-0 "79.0"
*HW_GONIOMETER_RADIUS-1 "91.5"
*HW_GONIOMETER_RADIUS-2 "150.0"
*HW_GONIOMETER_RADIUS-3 "0"
*HW_GONIOMETER_RADIUS-4 "103.4"
*HW_GONIOMETER_RADIUS-5 "150.0"
*HW_GONIOMETER_RADIUS-6 "46.6"
*HW_GONIOMETER_RADIUS-7 "160.0"
*HW_I_OPT_ID-0 "ISL0021"
*HW_I_OPT_ID-1 "ISO0021"
*HW_I_OPT_NAME-0 "発散スリット|Divergence slit"
*HW_I_OPT_NAME-1 "入射平行スリット|Incident parallel slit"
*HW_R_ATTENUATER_AUTOMODE "0"
*HW_R_OPT_ID-0 "RSS0021"
*HW_R_OPT_ID-1 "RSO0021"
*HW_R_OPT_ID-2 "RRS0021"
*HW_R_OPT_NAME-0 "散乱スリット|Scattering slit"
*HW_R_OPT_NAME-1 "受光平行スリット|Receiving soller slit"
*HW_R_OPT_NAME-2 "受光スリット|Receiving slit"
*HW_SAMPLE_HOLDER_ID "SMP0000"
*HW_SAMPLE_HOLDER_NAME "無し|None"
*HW_XG_CURRENT_MAX "15"
*HW_XG_CURRENT_MIN "2"
*HW_XG_CURRENT_RESOLUTION "1"
*HW_XG_CURRENT_UNIT "mA"
*HW_XG_FOCUS "1mm x 10mm"
*HW_XG_FOCUS_TYPE "Normal"
*HW_XG_ID ""
*HW_XG_NAME "300W/600W 封入管-B|300W/600W Sealed tube-B"
*HW_XG_TARGET_ATOMIC_NUMBER "29.0000000000"
*HW_XG_TARGET_NAME "Cu"
*HW_XG_TYPE "Hermetic"
*HW_XG_VOLTAGE_MAX "40"
*HW_XG_VOLTAGE_MIN "20"
*HW_XG_VOLTAGE_RESOLUTION "1"
*HW_XG_VOLTAGE_UNIT "kV"
*HW_XG_WATT_MAX "0.600"
*HW_XG_WATT_UNIT "kW"
*HW_XG_WAVE_LENGTH_ALPHA1 "1.540593"
*HW_XG_WAVE_LENGTH_ALPHA2 "1.544414"
*HW_XG_WAVE_LENGTH_BETA "1.392250"
*MEAS_COND_AXIS_NAME-0 "Theta/2-Theta"
*MEAS_COND_AXIS_NAME-1 "Spin"
*MEAS_COND_AXIS_NAME-2 "Change"
*MEAS_COND_AXIS_NAME-3 "Soller(inc.)"
*MEAS_COND_AXIS_NAME-4 "IHS"
*MEAS_COND_AXIS_NAME-5 "DS"
*MEAS_COND_AXIS_NAME-6 "SS"
*MEAS_COND_AXIS_NAME-7 "Soller(rec.)"
*MEAS_COND_AXIS_NAME-8 "RS"
*MEAS_COND_AXIS_NAME-9 "Filter"
*MEAS_COND_AXIS_NAME-10 "Monochromator"
*MEAS_COND_AXIS_NAME-11 "PHA"
*MEAS_COND_AXIS_NAME_INTERNAL-0 "TwoThetaTheta"
*MEAS_COND_AXIS_NAME_INTERNAL-1 "Spin"
*MEAS_COND_AXIS_NAME_INTERNAL-2 "Change"
*MEAS_COND_AXIS_NAME_INTERNAL-3 "IncidentSollerSlit"
*MEAS_COND_AXIS_NAME_INTERNAL-4 "IncidentAxdSlit"
*MEAS_COND_AXIS_NAME_INTERNAL-5 "IncidentSlitBox"
*MEAS_COND_AXIS_NAME_INTERNAL-6 "ReceivingSlitBox1"
*MEAS_COND_AXIS_NAME_INTERNAL-7 "ReceivingSollerSlit"
*MEAS_COND_AXIS_NAME_INTERNAL-8 "ReceivingSlitBox2"
*MEAS_COND_AXIS_NAME_INTERNAL-9 "Filter"
*MEAS_COND_AXIS_NAME_INTERNAL-10 "CounterMonochromator"
*MEAS_COND_AXIS_NAME_INTERNAL-11 "PHA"
*MEAS_COND_AXIS_NAME_MAGICNO-0 "268632064.0000000000"
*MEAS_COND_AXIS_NAME_MAGICNO-1 "16842752.0000000000"
*MEAS_COND_AXIS_NAME_MAGICNO-2 "16842752.0000000000"
*MEAS_COND_AXIS_NAME_MAGICNO-3 "20971521.0000000000"
*MEAS_COND_AXIS_NAME_MAGICNO-4 "22020097.0000000000"
*MEAS_COND_AXIS_NAME_MAGICNO-5 "22020097.0000000000"
*MEAS_COND_AXIS_NAME_MAGICNO-6 "23068673.0000000000"
*MEAS_COND_AXIS_NAME_MAGICNO-7 "20971521.0000000000"
*MEAS_COND_AXIS_NAME_MAGICNO-8 "23068673.0000000000"
*MEAS_COND_AXIS_NAME_MAGICNO-9 "20971521.0000000000"
*MEAS_COND_AXIS_NAME_MAGICNO-10 "20971521.0000000000"
*MEAS_COND_AXIS_NAME_MAGICNO-11 "0.0000000000"
*MEAS_COND_AXIS_OFFSET-0 "0.0000000000"
*MEAS_COND_AXIS_OFFSET-1 "-"
*MEAS_COND_AXIS_OFFSET-2 "-"
*MEAS_COND_AXIS_OFFSET-3 "-"
*MEAS_COND_AXIS_OFFSET-4 "-"
*MEAS_COND_AXIS_OFFSET-5 "-"
*MEAS_COND_AXIS_OFFSET-6 "-"
*MEAS_COND_AXIS_OFFSET-7 "-"
*MEAS_COND_AXIS_OFFSET-8 "-"
*MEAS_COND_AXIS_OFFSET-9 "-"
*MEAS_COND_AXIS_OFFSET-10 "-"
*MEAS_COND_AXIS_OFFSET-11 "-"
*MEAS_COND_AXIS_POSITION-0 "92.4250000000"
*MEAS_COND_AXIS_POSITION-1 "0.0000000000"
*MEAS_COND_AXIS_POSITION-2 "3.0000000000"
*MEAS_COND_AXIS_POSITION-3 "2.5deg"
*MEAS_COND_AXIS_POSITION-4 "10.0mm"
*MEAS_COND_AXIS_POSITION-5 "0.625deg"
*MEAS_COND_AXIS_POSITION-6 "13.0mm"
*MEAS_COND_AXIS_POSITION-7 "2.5deg"
*MEAS_COND_AXIS_POSITION-8 "13.0mm"
*MEAS_COND_AXIS_POSITION-9 "K-beta(x2)"
*MEAS_COND_AXIS_POSITION-10 "None"
*MEAS_COND_AXIS_POSITION-11 "40.0000000000"
*MEAS_COND_AXIS_UNIT-0 "deg"
*MEAS_COND_AXIS_UNIT-1 ""
*MEAS_COND_AXIS_UNIT-2 ""
*MEAS_COND_AXIS_UNIT-3 ""
*MEAS_COND_AXIS_UNIT-4 ""
*MEAS_COND_AXIS_UNIT-5 ""
*MEAS_COND_AXIS_UNIT-6 ""
*MEAS_COND_AXIS_UNIT-7 ""
*MEAS_COND_AXIS_UNIT-8 ""
*MEAS_COND_AXIS_UNIT-9 ""
*MEAS_COND_AXIS_UNIT-10 ""
*MEAS_COND_AXIS_UNIT-11 "div"
*MEAS_COND_CORRECTION_SLIT_COUNTERMONO "None"
*MEAS_COND_CORRECTION_SLIT_DS "0.625deg"
*MEAS_COND_CORRECTION_SLIT_FILTER "None"
*MEAS_COND_CORRECTION_SLIT_IHS "10.0mm"
*MEAS_COND_CORRECTION_SLIT_RS "13.0mm"
*MEAS_COND_CORRECTION_SLIT_SOLLER_INC "2.5deg"
*MEAS_COND_CORRECTION_SLIT_SOLLER_REC "2.5deg"
*MEAS_COND_CORRECTION_SLIT_SS "13.0mm"
*MEAS_COND_COUNTER_CNTLOSS_CORR "0.0000000000"
*MEAS_COND_COUNTER_PHABASE "40.0000000000"
*MEAS_COND_COUNTER_PHAWINDOW "15.0000000000"
*MEAS_COND_COUNTER_PHA_UNIT "div"
*MEAS_COND_COUNTER_TAUDIFF "0.2500000000"
*MEAS_COND_COUNTER_TAUINT "0.7500000000"
*MEAS_COND_IRRADIATION_MODE "OFF"
*MEAS_COND_IRRADIATION_WIDTH ""
*MEAS_COND_OPT_ATTR " "
*MEAS_COND_OPT_NAME ""
*MEAS_COND_UNSYMMETRIC_MODE "OFF"
*MEAS_COND_XG_CURRENT "15.0000000000"
*MEAS_COND_XG_VOLTAGE "40.0000000000"
*MEAS_COND_XG_WAVE_TYPE "Ka"
*MEAS_DATA_COUNT "4251.0000000000"
*MEAS_SCAN_AXIS_X "Theta/2-Theta"
*MEAS_SCAN_AXIS_X_INTERNAL "TwoThetaTheta"
*MEAS_SCAN_END_TIME "03/03/17 15:36:38"
*MEAS_SCAN_MODE "CONTINUOUS"
*MEAS_SCAN_MONITOR "0"
*MEAS_SCAN_RESOLUTION_X "0.005"
*MEAS_SCAN_SPEED "5.000"
*MEAS_SCAN_SPEED_UNIT "deg/min"
*MEAS_SCAN_START "5.0000000000"
*MEAS_SCAN_START_TIME "03/03/17 15:18:12"
*MEAS_SCAN_STEP "0.0200000000"
*MEAS_SCAN_STOP "90.0000000000"
*MEAS_SCAN_UNIT_X "deg"
*MEAS_SCAN_UNIT_Y "counts"
*SLIT_SYSTEM "0"
*RAS_HEADER_END
*RAS_INT_START
5.000 345.000 1.000
5.020 331.000 1.000
5.040 335.000 1.000
5.060 338.000 1.000
5.080 369.000 1.000
5.100 373.000 1.000
5.120 336.000 1.000
5.140 329.000 1.000
5.160 322.000 1.000
5.180 359.000 1.000
5.200 339.000 1.000
5.220 318.000 1.000
5.240 321.000 1.000
5.260 332.000 1.000
5.280 352.000 1.000
5.300 359.000 1.000
5.320 333.000 1.000
5.340 302.000 1.000
5.360 280.000 1.000
5.380 267.000 1.000
5.400 306.000 1.000
5.420 329.000 1.000
5.440 319.000 1.000
5.460 335.000 1.000
5.480 339.000 1.000
5.500 319.000 1.000
5.520 308.000 1.000
5.540 295.000 1.000
5.560 294.000 1.000
5.580 293.000 1.000
5.600 303.000 1.000
5.620 312.000 1.000
5.640 323.000 1.000
5.660 313.000 1.000
5.680 317.000 1.000
5.700 323.000 1.000
5.720 294.000 1.000
5.740 285.000 1.000
5.760 306.000 1.000
5.780 307.000 1.000
5.800 299.000 1.000
5.820 302.000 1.000
5.840 294.000 1.000
5.860 292.000 1.000
5.880 279.000 1.000
5.900 279.000 1.000
5.920 285.000 1.000
5.940 296.000 1.000
5.960 302.000 1.000
5.980 301.000 1.000
6.000 279.000 1.000
6.020 290.000 1.000
6.040 289.000 1.000
6.060 263.000 1.000
6.080 267.000 1.000
6.100 280.000 1.000
6.120 284.000 1.000
6.140 294.000 1.000
6.160 274.000 1.000
6.180 269.000 1.000
6.200 274.000 1.000
6.220 290.000 1.000
6.240 290.000 1.000
6.260 301.000 1.000
6.280 300.000 1.000
6.300 292.000 1.000
6.320 284.000 1.000
6.340 272.000 1.000
6.360 278.000 1.000
6.380 274.000 1.000
6.400 280.000 1.000
6.420 301.000 1.000
6.440 290.000 1.000
6.460 279.000 1.000
6.480 264.000 1.000
6.500 256.000 1.000
6.520 269.000 1.000
6.540 280.000 1.000
6.560 295.000 1.000
6.580 271.000 1.000
6.600 255.000 1.000
6.620 268.000 1.000
6.640 270.000 1.000
6.660 264.000 1.000
6.680 271.000 1.000
6.700 269.000 1.000
6.720 268.000 1.000
6.740 267.000 1.000
6.760 282.000 1.000
6.780 284.000 1.000
6.800 265.000 1.000
6.820 270.000 1.000
6.840 273.000 1.000
6.860 278.000 1.000
6.880 270.000 1.000
6.900 252.000 1.000
6.920 274.000 1.000
6.940 264.000 1.000
6.960 259.000 1.000
6.980 268.000 1.000
7.000 263.000 1.000
7.020 258.000 1.000
7.040 261.000 1.000
7.060 242.000 1.000
7.080 256.000 1.000
7.100 280.000 1.000
7.120 269.000 1.000
7.140 260.000 1.000
7.160 252.000 1.000
7.180 259.000 1.000
7.200 265.000 1.000
7.220 283.000 1.000
7.240 261.000 1.000
7.260 235.000 1.000
7.280 254.000 1.000
7.300 280.000 1.000
7.320 269.000 1.000
7.340 275.000 1.000
7.360 279.000 1.000
7.380 257.000 1.000
7.400 261.000 1.000
7.420 276.000 1.000
7.440 287.000 1.000
7.460 282.000 1.000
7.480 273.000 1.000
7.500 258.000 1.000
7.520 258.000 1.000
7.540 238.000 1.000
7.560 236.000 1.000
7.580 259.000 1.000
7.600 270.000 1.000
7.620 257.000 1.000
7.640 264.000 1.000
7.660 274.000 1.000
7.680 260.000 1.000
7.700 266.000 1.000
7.720 266.000 1.000
7.740 257.000 1.000
7.760 271.000 1.000
7.780 262.000 1.000
7.800 289.000 1.000
7.820 290.000 1.000
7.840 251.000 1.000
7.860 250.000 1.000
7.880 269.000 1.000
7.900 257.000 1.000
7.920 237.000 1.000
7.940 244.000 1.000
7.960 284.000 1.000
7.980 282.000 1.000
8.000 269.000 1.000
8.020 270.000 1.000
8.040 256.000 1.000
8.060 248.000 1.000
8.080 243.000 1.000
8.100 263.000 1.000
8.120 261.000 1.000
8.140 249.000 1.000
8.160 250.000 1.000
8.180 254.000 1.000
8.200 263.000 1.000
8.220 266.000 1.000
8.240 265.000 1.000
8.260 261.000 1.000
8.280 262.000 1.000
8.300 237.000 1.000
8.320 273.000 1.000
8.340 306.000 1.000
8.360 270.000 1.000
8.380 259.000 1.000
8.400 248.000 1.000
8.420 237.000 1.000
8.440 247.000 1.000
8.460 275.000 1.000
8.480 274.000 1.000
8.500 266.000 1.000
8.520 276.000 1.000
8.540 260.000 1.000
8.560 252.000 1.000
8.580 238.000 1.000
8.600 267.000 1.000
8.620 271.000 1.000
8.640 269.000 1.000
8.660 271.000 1.000
8.680 271.000 1.000
8.700 263.000 1.000
8.720 270.000 1.000
8.740 276.000 1.000
8.760 262.000 1.000
8.780 276.000 1.000
8.800 264.000 1.000
8.820 250.000 1.000
8.840 254.000 1.000
8.860 264.000 1.000
8.880 274.000 1.000
8.900 255.000 1.000
8.920 246.000 1.000
8.940 269.000 1.000
8.960 276.000 1.000
8.980 267.000 1.000
9.000 286.000 1.000
9.020 281.000 1.000
9.040 267.000 1.000
9.060 272.000 1.000
9.080 272.000 1.000
9.100 250.000 1.000
9.120 260.000 1.000
9.140 270.000 1.000
9.160 272.000 1.000
9.180 255.000 1.000
9.200 259.000 1.000
9.220 281.000 1.000
9.240 269.000 1.000
9.260 246.000 1.000
9.280 247.000 1.000
9.300 280.000 1.000
9.320 275.000 1.000
9.340 291.000 1.000
9.360 301.000 1.000
9.380 286.000 1.000
9.400 286.000 1.000
9.420 251.000 1.000
9.440 261.000 1.000
9.460 278.000 1.000
9.480 259.000 1.000
9.500 272.000 1.000
9.520 270.000 1.000
9.540 284.000 1.000
9.560 279.000 1.000
9.580 274.000 1.000
9.600 263.000 1.000
9.620 277.000 1.000
9.640 266.000 1.000
9.660 266.000 1.000
9.680 268.000 1.000
9.700 264.000 1.000
9.720 286.000 1.000
9.740 281.000 1.000
9.760 270.000 1.000
9.780 277.000 1.000
9.800 277.000 1.000
9.820 289.000 1.000
9.840 277.000 1.000
9.860 272.000 1.000
9.880 270.000 1.000
9.900 268.000 1.000
9.920 263.000 1.000
9.940 262.000 1.000
9.960 277.000 1.000
9.980 270.000 1.000
10.000 268.000 1.000
10.020 283.000 1.000
10.040 271.000 1.000
10.060 274.000 1.000
10.080 266.000 1.000
10.100 264.000 1.000
10.120 279.000 1.000
10.140 288.000 1.000
10.160 272.000 1.000
10.180 269.000 1.000
10.200 266.000 1.000
10.220 271.000 1.000
10.240 271.000 1.000
10.260 273.000 1.000
10.280 279.000 1.000
10.300 266.000 1.000
10.320 276.000 1.000
10.340 277.000 1.000
10.360 269.000 1.000
10.380 273.000 1.000
10.400 286.000 1.000
10.420 301.000 1.000
10.440 309.000 1.000
10.460 287.000 1.000
10.480 277.000 1.000
10.500 294.000 1.000
10.520 280.000 1.000
10.540 276.000 1.000
10.560 252.000 1.000
10.580 264.000 1.000
10.600 285.000 1.000
10.620 288.000 1.000
10.640 277.000 1.000
10.660 266.000 1.000
10.680 264.000 1.000
10.700 256.000 1.000
10.720 256.000 1.000
10.740 268.000 1.000
10.760 285.000 1.000
10.780 290.000 1.000
10.800 280.000 1.000
10.820 288.000 1.000
10.840 289.000 1.000
10.860 281.000 1.000
10.880 296.000 1.000
10.900 287.000 1.000
10.920 289.000 1.000
10.940 275.000 1.000
10.960 258.000 1.000
10.980 271.000 1.000
11.000 288.000 1.000
11.020 283.000 1.000
11.040 280.000 1.000
11.060 270.000 1.000
11.080 277.000 1.000
11.100 277.000 1.000
11.120 276.000 1.000
11.140 272.000 1.000
11.160 270.000 1.000
11.180 302.000 1.000
11.200 299.000 1.000
11.220 285.000 1.000
11.240 289.000 1.000
11.260 273.000 1.000
11.280 265.000 1.000
11.300 275.000 1.000
11.320 280.000 1.000
11.340 275.000 1.000
11.360 273.000 1.000
11.380 276.000 1.000
11.400 280.000 1.000
11.420 289.000 1.000
11.440 290.000 1.000
11.460 278.000 1.000
11.480 283.000 1.000
11.500 292.000 1.000
11.520 276.000 1.000
11.540 261.000 1.000
11.560 268.000 1.000
11.580 269.000 1.000
11.600 242.000 1.000
11.620 258.000 1.000
11.640 273.000 1.000
11.660 259.000 1.000
11.680 274.000 1.000
11.700 272.000 1.000
11.720 254.000 1.000
11.740 240.000 1.000
11.760 246.000 1.000
11.780 264.000 1.000
11.800 263.000 1.000
11.820 255.000 1.000
11.840 267.000 1.000
11.860 275.000 1.000
11.880 277.000 1.000
11.900 274.000 1.000
11.920 258.000 1.000
11.940 259.000 1.000
11.960 272.000 1.000
11.980 285.000 1.000
12.000 289.000 1.000
12.020 286.000 1.000
12.040 282.000 1.000
12.060 252.000 1.000
12.080 268.000 1.000
12.100 278.000 1.000
12.120 265.000 1.000
12.140 270.000 1.000
12.160 272.000 1.000
12.180 274.000 1.000
12.200 278.000 1.000
12.220 274.000 1.000
12.240 259.000 1.000
12.260 268.000 1.000
12.280 264.000 1.000
12.300 267.000 1.000
12.320 263.000 1.000
12.340 263.000 1.000
12.360 274.000 1.000
12.380 268.000 1.000
12.400 257.000 1.000
12.420 257.000 1.000
12.440 250.000 1.000
12.460 269.000 1.000
12.480 250.000 1.000
12.500 253.000 1.000
12.520 262.000 1.000
12.540 259.000 1.000
12.560 263.000 1.000
12.580 261.000 1.000
12.600 236.000 1.000
12.620 242.000 1.000
12.640 259.000 1.000
12.660 263.000 1.000
12.680 249.000 1.000
12.700 251.000 1.000
12.720 259.000 1.000
12.740 255.000 1.000
12.760 251.000 1.000
12.780 241.000 1.000
12.800 257.000 1.000
12.820 263.000 1.000
12.840 250.000 1.000
12.860 248.000 1.000
12.880 251.000 1.000
12.900 249.000 1.000
12.920 268.000 1.000
12.940 266.000 1.000
12.960 248.000 1.000
12.980 251.000 1.000
13.000 241.000 1.000
13.020 239.000 1.000
13.040 272.000 1.000
13.060 268.000 1.000
13.080 266.000 1.000
13.100 247.000 1.000
13.120 259.000 1.000
13.140 255.000 1.000
13.160 258.000 1.000
13.180 255.000 1.000
13.200 233.000 1.000
13.220 240.000 1.000
13.240 235.000 1.000
13.260 223.000 1.000
13.280 241.000 1.000
13.300 249.000 1.000
13.320 244.000 1.000
13.340 234.000 1.000
13.360 251.000 1.000
13.380 253.000 1.000
13.400 238.000 1.000
13.420 256.000 1.000
13.440 242.000 1.000
13.460 246.000 1.000
13.480 266.000 1.000
13.500 254.000 1.000
13.520 249.000 1.000
13.540 227.000 1.000
13.560 245.000 1.000
13.580 235.000 1.000
13.600 223.000 1.000
13.620 227.000 1.000
13.640 249.000 1.000
13.660 258.000 1.000
13.680 247.000 1.000
13.700 254.000 1.000
13.720 243.000 1.000
13.740 233.000 1.000
13.760 242.000 1.000
13.780 252.000 1.000
13.800 237.000 1.000
13.820 229.000 1.000
13.840 216.000 1.000
13.860 227.000 1.000
13.880 256.000 1.000
13.900 251.000 1.000
13.920 241.000 1.000
13.940 245.000 1.000
13.960 223.000 1.000
13.980 236.000 1.000
14.000 240.000 1.000
14.020 219.000 1.000
14.040 231.000 1.000
14.060 226.000 1.000
14.080 225.000 1.000
14.100 242.000 1.000
14.120 229.000 1.000
14.140 225.000 1.000
14.160 227.000 1.000
14.180 217.000 1.000
14.200 216.000 1.000
14.220 248.000 1.000
14.240 240.000 1.000
14.260 230.000 1.000
14.280 235.000 1.000
14.300 219.000 1.000
14.320 226.000 1.000
14.340 241.000 1.000
14.360 235.000 1.000
14.380 236.000 1.000
14.400 239.000 1.000
14.420 246.000 1.000
14.440 249.000 1.000
14.460 239.000 1.000
14.480 232.000 1.000
14.500 236.000 1.000
14.520 234.000 1.000
14.540 235.000 1.000
14.560 236.000 1.000
14.580 231.000 1.000
14.600 224.000 1.000
14.620 224.000 1.000
14.640 258.000 1.000
14.660 247.000 1.000
14.680 244.000 1.000
14.700 232.000 1.000
14.720 218.000 1.000
14.740 216.000 1.000
14.760 230.000 1.000
14.780 215.000 1.000
14.800 235.000 1.000
14.820 236.000 1.000
14.840 248.000 1.000
14.860 240.000 1.000
14.880 230.000 1.000
14.900 227.000 1.000
14.920 227.000 1.000
14.940 235.000 1.000
14.960 241.000 1.000
14.980 229.000 1.000
15.000 224.000 1.000
15.020 223.000 1.000
15.040 243.000 1.000
15.060 225.000 1.000
15.080 227.000 1.000
15.100 242.000 1.000
15.120 236.000 1.000
15.140 248.000 1.000
15.160 237.000 1.000
15.180 217.000 1.000
15.200 224.000 1.000
15.220 231.000 1.000
15.240 230.000 1.000
15.260 233.000 1.000
15.280 232.000 1.000
15.300 220.000 1.000
15.320 227.000 1.000
15.340 228.000 1.000
15.360 227.000 1.000
15.380 235.000 1.000
15.400 238.000 1.000
15.420 234.000 1.000
15.440 227.000 1.000
15.460 235.000 1.000
15.480 244.000 1.000
15.500 247.000 1.000
15.520 241.000 1.000
15.540 235.000 1.000
15.560 222.000 1.000
15.580 240.000 1.000
15.600 239.000 1.000
15.620 219.000 1.000
15.640 220.000 1.000
15.660 222.000 1.000
15.680 220.000 1.000
15.700 231.000 1.000
15.720 242.000 1.000
15.740 233.000 1.000
15.760 230.000 1.000
15.780 234.000 1.000
15.800 227.000 1.000
15.820 222.000 1.000
15.840 224.000 1.000
15.860 212.000 1.000
15.880 217.000 1.000
15.900 230.000 1.000
15.920 239.000 1.000
15.940 226.000 1.000
15.960 205.000 1.000
15.980 209.000 1.000
16.000 208.000 1.000
16.020 212.000 1.000
16.040 220.000 1.000
