*RAS_DATA_START
*RAS_HEADER_START
*CORR_POS_DB_NAME "C_DteX_ASC-6_15122015"
*CORR_POS_GONIO_RADIUS ""
*CORR_POS_NODE_INDEX01 ""
*CORR_POS_NODE_INDEX02 ""
*CORR_POS_NODE_INDEX03 ""
*CORR_POS_NODE_INDEX04 ""
*CORR_POS_NODE_INDEX05 ""
*CORR_POS_NODE_INDEX06 ""
*CORR_POS_NODE_INDEX07 ""
*CORR_POS_NODE_INDEX08 ""
*CORR_POS_NODE_INDEX09 ""
*CORR_POS_NODE_INDEX10 ""
*CORR_POS_NODE_INDEX11 ""
*CORR_POS_NODE_LABEL01 "Si(111)"
*CORR_POS_NODE_LABEL02 "Si(220)"
*CORR_POS_NODE_LABEL03 "Si(311)"
*CORR_POS_NODE_LABEL04 "Si(400)"
*CORR_POS_NODE_LABEL05 "Si(331)"
*CORR_POS_NODE_LABEL06 "Si(422)"
*CORR_POS_NODE_LABEL07 "Si(511)"
*CORR_POS_NODE_LABEL08 "Si(440)"
*CORR_POS_NODE_LABEL09 "Si(531)"
*CORR_POS_NODE_LABEL10 "Si(620)"
*CORR_POS_NODE_LABEL11 "Si(533)"
*CORR_POS_NODE_POS_CALC01 "28.4137"
*CORR_POS_NODE_POS_CALC02 "47.2707"
*CORR_POS_NODE_POS_CALC03 "56.0883"
*CORR_POS_NODE_POS_CALC04 "69.0934"
*CORR_POS_NODE_POS_CALC05 "76.3385"
*CORR_POS_NODE_POS_CALC06 "87.9915"
*CORR_POS_NODE_POS_CALC07 "94.9137"
*CORR_POS_NODE_POS_CALC08 "106.67"
*CORR_POS_NODE_POS_CALC09 "114.054"
*CORR_POS_NODE_POS_CALC10 "127.508"
*CORR_POS_NODE_POS_CALC11 "136.858"
*CORR_POS_NODE_POS_MEAS01 "28.4844"
*CORR_POS_NODE_POS_MEAS02 "47.3386"
*CORR_POS_NODE_POS_MEAS03 "56.1592"
*CORR_POS_NODE_POS_MEAS04 "69.1708"
*CORR_POS_NODE_POS_MEAS05 "76.4167"
*CORR_POS_NODE_POS_MEAS06 "88.0714"
*CORR_POS_NODE_POS_MEAS07 "94.9948"
*CORR_POS_NODE_POS_MEAS08 "106.756"
*CORR_POS_NODE_POS_MEAS09 "114.134"
*CORR_POS_NODE_POS_MEAS10 "127.59"
*CORR_POS_NODE_POS_MEAS11 "136.946"
*CORR_POS_OPT_ATTR "集中法"
*CORR_POS_PARAM_MU ""
*CORR_POS_PARAM_PL ""
*CORR_POS_SEMODEL_TYPE "0"
*CORR_POS_STANDARD_TYPE ""
*CORR_POS_VALUE_ANALYZER "None"
*CORR_POS_VALUE_CMONO "None"
*CORR_POS_VALUE_IMONO "None"
*CORR_POS_VALUE_IS "0.625deg"
*CORR_POS_VALUE_ISL "10.0mm"
*CORR_POS_VALUE_ISOLLER "2.5deg"
*CORR_POS_VALUE_RS1 "13.0mm"
*CORR_POS_VALUE_RS2 "13.0mm"
*CORR_POS_VALUE_RSOLLER "2.5deg"
*CORR_POS_XG_FOCUS_L ""
*CORR_POS_XG_WAVE_TYPE ""
*CORR_POS_XG_WAVE_VALUE ""
*DISP_FMT_X "%.2f"
*DISP_FMT_Y "%.0f"
*DISP_FULLSCALE "31120.0000000000"
*DISP_LINE_COLOR "255.0000000000"
*DISP_LINE_STYLE "0.0000000000"
*DISP_LINE_WIDTH "0.2500000000"
*DISP_NOTE "Collected Data-3"
*DISP_OFFSET_Y "0.0000000000"
*DISP_PEAKSEARCH_UNIT_Y "cps"
*DISP_RANGE_BOTTOM "0.0000000000"
*DISP_RANGE_LEFT "5.0000000000"
*DISP_RANGE_LOGCUTOFF "0.0100000000"
*DISP_RANGE_RIGHT "90.0000000000"
*DISP_RANGE_TOP "31120.0000000000"
*DISP_SCALE_MODE_Y "0.0000000000"
*DISP_TAB_NAME "Theta/2-Theta"
*DISP_TITLE_Y "Intensity"
*DISP_UNIT_Y "cps"
*DISP_WINDOW_NAME "MSG_MACROENGINE"
*FILE_COMMENT " "
*FILE_MD5 ""
*FILE_MEMO " "
*FILE_OPERATOR "RIGAKU"
*FILE_SAMPLE "ZnOFeCl3"
*FILE_TYPE "RAS_RAW"
*FILE_USERGROUP "System Manager"
*FILE_VERSION "1.0000000000"
*HW_ATTACHMENT_ID "ATT1031"
*HW_ATTACHMENT_NAME "6サンプルチェンジャ|ASC-6"
*HW_COUNTER_ID-0 "CUT0025"
*HW_COUNTER_ID-1 "CUT0020"
*HW_COUNTER_ID-2 "CUT0020"
*HW_COUNTER_ID-3 "CMC0021"
*HW_COUNTER_NAME-0 "D/teX Ultra|D/teX Ultra"
*HW_COUNTER_NAME-1 "None|None"
*HW_COUNTER_NAME-2 "None|None"
*HW_COUNTER_NAME-3 "検出器モノクロメータ|Detector monochromator"
*HW_COUNTER_SELECT_NAME "D/teX Ultra|D/teX Ultra"
*HW_GONIOMETER_ID "GON0070"
*HW_GONIOMETER_NAME "MiniFlex 300/600|MiniFlex 300/600"
*HW_GONIOMETER_RADIUS-0 "79.0"
*HW_GONIOMETER_RADIUS-1 "91.5"
*HW_GONIOMETER_RADIUS-2 "150.0"
*HW_GONIOMETER_RADIUS-3 "0"
*HW_GONIOMETER_RADIUS-4 "103.4"
*HW_GONIOMETER_RADIUS-5 "150.0"
*HW_GONIOMETER_RADIUS-6 "46.6"
*HW_GONIOMETER_RADIUS-7 "160.0"
*HW_I_OPT_ID-0 "ISL0021"
*HW_I_OPT_ID-1 "ISO0021"
*HW_I_OPT_NAME-0 "発散スリット|Divergence slit"
*HW_I_OPT_NAME-1 "入射平行スリット|Incident parallel slit"
*HW_R_ATTENUATER_AUTOMODE "0"
*HW_R_OPT_ID-0 "RSS0021"
*HW_R_OPT_ID-1 "RSO0021"
*HW_R_OPT_ID-2 "RRS0021"
*HW_R_OPT_NAME-0 "散乱スリット|Scattering slit"
*HW_R_OPT_NAME-1 "受光平行スリット|Receiving soller slit"
*HW_R_OPT_NAME-2 "受光スリット|Receiving slit"
*HW_SAMPLE_HOLDER_ID "SMP0000"
*HW_SAMPLE_HOLDER_NAME "無し|None"
*HW_XG_CURRENT_MAX "15"
*HW_XG_CURRENT_MIN "2"
*HW_XG_CURRENT_RESOLUTION "1"
*HW_XG_CURRENT_UNIT "mA"
*HW_XG_FOCUS "1mm x 10mm"
*HW_XG_FOCUS_TYPE "Normal"
*HW_XG_ID ""
*HW_XG_NAME "300W/600W 封入管-B|300W/600W Sealed tube-B"
*HW_XG_TARGET_ATOMIC_NUMBER "29.0000000000"
*HW_XG_TARGET_NAME "Cu"
*HW_XG_TYPE "Hermetic"
*HW_XG_VOLTAGE_MAX "40"
*HW_XG_VOLTAGE_MIN "20"
*HW_XG_VOLTAGE_RESOLUTION "1"
*HW_XG_VOLTAGE_UNIT "kV"
*HW_XG_WATT_MAX "0.600"
*HW_XG_WATT_UNIT "kW"
*HW_XG_WAVE_LENGTH_ALPHA1 "1.540593"
*HW_XG_WAVE_LENGTH_ALPHA2 "1.544414"
*HW_XG_WAVE_LENGTH_BETA "1.392250"
*MEAS_COND_AXIS_NAME-0 "Theta/2-Theta"
*MEAS_COND_AXIS_NAME-1 "Spin"
*MEAS_COND_AXIS_NAME-2 "Change"
*MEAS_COND_AXIS_NAME-3 "Soller(inc.)"
*MEAS_COND_AXIS_NAME-4 "IHS"
*MEAS_COND_AXIS_NAME-5 "DS"
*MEAS_COND_AXIS_NAME-6 "SS"
*MEAS_COND_AXIS_NAME-7 "Soller(rec.)"
*MEAS_COND_AXIS_NAME-8 "RS"
*MEAS_COND_AXIS_NAME-9 "Filter"
*MEAS_COND_AXIS_NAME-10 "Monochromator"
*MEAS_COND_AXIS_NAME-11 "PHA"
*MEAS_COND_AXIS_NAME_INTERNAL-0 "TwoThetaTheta"
*MEAS_COND_AXIS_NAME_INTERNAL-1 "Spin"
*MEAS_COND_AXIS_NAME_INTERNAL-2 "Change"
*MEAS_COND_AXIS_NAME_INTERNAL-3 "IncidentSollerSlit"
*MEAS_COND_AXIS_NAME_INTERNAL-4 "IncidentAxdSlit"
*MEAS_COND_AXIS_NAME_INTERNAL-5 "IncidentSlitBox"
*MEAS_COND_AXIS_NAME_INTERNAL-6 "ReceivingSlitBox1"
*MEAS_COND_AXIS_NAME_INTERNAL-7 "ReceivingSollerSlit"
*MEAS_COND_AXIS_NAME_INTERNAL-8 "ReceivingSlitBox2"
*MEAS_COND_AXIS_NAME_INTERNAL-9 "Filter"
*MEAS_COND_AXIS_NAME_INTERNAL-10 "CounterMonochromator"
*MEAS_COND_AXIS_NAME_INTERNAL-11 "PHA"
*MEAS_COND_AXIS_NAME_MAGICNO-0 "268632064.0000000000"
*MEAS_COND_AXIS_NAME_MAGICNO-1 "16842752.0000000000"
*MEAS_COND_AXIS_NAME_MAGICNO-2 "16842752.0000000000"
*MEAS_COND_AXIS_NAME_MAGICNO-3 "20971521.0000000000"
*MEAS_COND_AXIS_NAME_MAGICNO-4 "22020097.0000000000"
*MEAS_COND_AXIS_NAME_MAGICNO-5 "22020097.0000000000"
*MEAS_COND_AXIS_NAME_MAGICNO-6 "23068673.0000000000"
*MEAS_COND_AXIS_NAME_MAGICNO-7 "20971521.0000000000"
*MEAS_COND_AXIS_NAME_MAGICNO-8 "23068673.0000000000"
*MEAS_COND_AXIS_NAME_MAGICNO-9 "20971521.0000000000"
*MEAS_COND_AXIS_NAME_MAGICNO-10 "20971521.0000000000"
*MEAS_COND_AXIS_NAME_MAGICNO-11 "0.0000000000"
*MEAS_COND_AXIS_OFFSET-0 "0.0000000000"
*MEAS_COND_AXIS_OFFSET-1 "-"
*MEAS_COND_AXIS_OFFSET-2 "-"
*MEAS_COND_AXIS_OFFSET-3 "-"
*MEAS_COND_AXIS_OFFSET-4 "-"
*MEAS_COND_AXIS_OFFSET-5 "-"
*MEAS_COND_AXIS_OFFSET-6 "-"
*MEAS_COND_AXIS_OFFSET-7 "-"
*MEAS_COND_AXIS_OFFSET-8 "-"
*MEAS_COND_AXIS_OFFSET-9 "-"
*MEAS_COND_AXIS_OFFSET-10 "-"
*MEAS_COND_AXIS_OFFSET-11 "-"
*MEAS_COND_AXIS_POSITION-0 "92.4250000000"
*MEAS_COND_AXIS_POSITION-1 "0.0000000000"
*MEAS_COND_AXIS_POSITION-2 "4.0000000000"
*MEAS_COND_AXIS_POSITION-3 "2.5deg"
*MEAS_COND_AXIS_POSITION-4 "10.0mm"
*MEAS_COND_AXIS_POSITION-5 "0.625deg"
*MEAS_COND_AXIS_POSITION-6 "13.0mm"
*MEAS_COND_AXIS_POSITION-7 "2.5deg"
*MEAS_COND_AXIS_POSITION-8 "13.0mm"
*MEAS_COND_AXIS_POSITION-9 "K-beta(x2)"
*MEAS_COND_AXIS_POSITION-10 "None"
*MEAS_COND_AXIS_POSITION-11 "40.0000000000"
*MEAS_COND_AXIS_UNIT-0 "deg"
*MEAS_COND_AXIS_UNIT-1 ""
*MEAS_COND_AXIS_UNIT-2 ""
*MEAS_COND_AXIS_UNIT-3 ""
*MEAS_COND_AXIS_UNIT-4 ""
*MEAS_COND_AXIS_UNIT-5 ""
*MEAS_COND_AXIS_UNIT-6 ""
*MEAS_COND_AXIS_UNIT-7 ""
*MEAS_COND_AXIS_UNIT-8 ""
*MEAS_COND_AXIS_UNIT-9 ""
*MEAS_COND_AXIS_UNIT-10 ""
*MEAS_COND_AXIS_UNIT-11 "div"
*MEAS_COND_CORRECTION_SLIT_COUNTERMONO "None"
*MEAS_COND_CORRECTION_SLIT_DS "0.625deg"
*MEAS_COND_CORRECTION_SLIT_FILTER "None"
*MEAS_COND_CORRECTION_SLIT_IHS "10.0mm"
*MEAS_COND_CORRECTION_SLIT_RS "13.0mm"
*MEAS_COND_CORRECTION_SLIT_SOLLER_INC "2.5deg"
*MEAS_COND_CORRECTION_SLIT_SOLLER_REC "2.5deg"
*MEAS_COND_CORRECTION_SLIT_SS "13.0mm"
*MEAS_COND_COUNTER_CNTLOSS_CORR "0.0000000000"
*MEAS_COND_COUNTER_PHABASE "40.0000000000"
*MEAS_COND_COUNTER_PHAWINDOW "15.0000000000"
*MEAS_COND_COUNTER_PHA_UNIT "div"
*MEAS_COND_COUNTER_TAUDIFF "0.2500000000"
*MEAS_COND_COUNTER_TAUINT "0.7500000000"
*MEAS_COND_IRRADIATION_MODE "OFF"
*MEAS_COND_IRRADIATION_WIDTH ""
*MEAS_COND_OPT_ATTR " "
*MEAS_COND_OPT_NAME ""
*MEAS_COND_UNSYMMETRIC_MODE "OFF"
*MEAS_COND_XG_CURRENT "15.0000000000"
*MEAS_COND_XG_VOLTAGE "40.0000000000"
*MEAS_COND_XG_WAVE_TYPE "Ka"
*MEAS_DATA_COUNT "4251.0000000000"
*MEAS_SCAN_AXIS_X "Theta/2-Theta"
*MEAS_SCAN_AXIS_X_INTERNAL "TwoThetaTheta"
*MEAS_SCAN_END_TIME "03/03/17 15:55:16"
*MEAS_SCAN_MODE "CONTINUOUS"
*MEAS_SCAN_MONITOR "0"
*MEAS_SCAN_RESOLUTION_X "0.005"
*MEAS_SCAN_SPEED "5.000"
*MEAS_SCAN_SPEED_UNIT "deg/min"
*MEAS_SCAN_START "5.0000000000"
*MEAS_SCAN_START_TIME "03/03/17 15:36:50"
*MEAS_SCAN_STEP "0.0200000000"
*MEAS_SCAN_STOP "90.0000000000"
*MEAS_SCAN_UNIT_X "deg"
*MEAS_SCAN_UNIT_Y "counts"
*SLIT_SYSTEM "0"
*RAS_HEADER_END
*RAS_INT_START
5.000 1410.000 1.000
5.020 1380.000 1.000
5.040 1347.000 1.000
5.060 1319.000 1.000
5.080 1299.000 1.000
5.100 1358.000 1.000
5.120 1373.000 1.000
5.140 1328.000 1.000
5.160 1312.000 1.000
5.180 1321.000 1.000
5.200 1361.000 1.000
5.220 1363.000 1.000
5.240 1351.000 1.000
5.260 1294.000 1.000
5.280 1309.000 1.000
5.300 1332.000 1.000
5.320 1329.000 1.000
5.340 1311.000 1.000
5.360 1317.000 1.000
5.380 1371.000 1.000
5.400 1378.000 1.000
5.420 1292.000 1.000
5.440 1289.000 1.000
5.460 1361.000 1.000
5.480 1365.000 1.000
5.500 1353.000 1.000
5.520 1345.000 1.000
5.540 1357.000 1.000
5.560 1317.000 1.000
5.580 1283.000 1.000
5.600 1316.000 1.000
5.620 1322.000 1.000
5.640 1341.000 1.000
5.660 1298.000 1.000
5.680 1297.000 1.000
5.700 1317.000 1.000
5.720 1226.000 1.000
5.740 1204.000 1.000
5.760 1261.000 1.000
5.780 1278.000 1.000
5.800 1314.000 1.000
5.820 1320.000 1.000
5.840 1306.000 1.000
5.860 1366.000 1.000
5.880 1347.000 1.000
5.900 1309.000 1.000
5.920 1306.000 1.000
5.940 1297.000 1.000
5.960 1296.000 1.000
5.980 1294.000 1.000
6.000 1304.000 1.000
6.020 1247.000 1.000
6.040 1234.000 1.000
6.060 1296.000 1.000
6.080 1293.000 1.000
6.100 1278.000 1.000
6.120 1273.000 1.000
6.140 1284.000 1.000
6.160 1299.000 1.000
6.180 1310.000 1.000
6.200 1304.000 1.000
6.220 1311.000 1.000
6.240 1354.000 1.000
6.260 1346.000 1.000
6.280 1319.000 1.000
6.300 1291.000 1.000
6.320 1311.000 1.000
6.340 1330.000 1.000
6.360 1349.000 1.000
6.380 1320.000 1.000
6.400 1271.000 1.000
6.420 1277.000 1.000
6.440 1293.000 1.000
6.460 1308.000 1.000
6.480 1267.000 1.000
6.500 1253.000 1.000
6.520 1253.000 1.000
6.540 1245.000 1.000
6.560 1257.000 1.000
6.580 1303.000 1.000
6.600 1278.000 1.000
6.620 1281.000 1.000
6.640 1318.000 1.000
6.660 1303.000 1.000
6.680 1275.000 1.000
6.700 1293.000 1.000
6.720 1320.000 1.000
6.740 1283.000 1.000
6.760 1285.000 1.000
6.780 1325.000 1.000
6.800 1340.000 1.000
6.820 1349.000 1.000
6.840 1324.000 1.000
6.860 1333.000 1.000
6.880 1315.000 1.000
6.900 1290.000 1.000
6.920 1275.000 1.000
6.940 1282.000 1.000
6.960 1283.000 1.000
6.980 1263.000 1.000
7.000 1300.000 1.000
7.020 1253.000 1.000
7.040 1247.000 1.000
7.060 1285.000 1.000
7.080 1313.000 1.000
7.100 1323.000 1.000
7.120 1265.000 1.000
7.140 1268.000 1.000
7.160 1319.000 1.000
7.180 1271.000 1.000
7.200 1252.000 1.000
7.220 1277.000 1.000
7.240 1321.000 1.000
7.260 1276.000 1.000
7.280 1283.000 1.000
7.300 1315.000 1.000
7.320 1310.000 1.000
7.340 1288.000 1.000
7.360 1338.000 1.000
7.380 1362.000 1.000
7.400 1292.000 1.000
7.420 1249.000 1.000
7.440 1262.000 1.000
7.460 1287.000 1.000
7.480 1315.000 1.000
7.500 1325.000 1.000
7.520 1269.000 1.000
7.540 1225.000 1.000
7.560 1248.000 1.000
7.580 1272.000 1.000
7.600 1262.000 1.000
7.620 1303.000 1.000
7.640 1322.000 1.000
7.660 1319.000 1.000
7.680 1324.000 1.000
7.700 1340.000 1.000
7.720 1316.000 1.000
7.740 1326.000 1.000
7.760 1311.000 1.000
7.780 1327.000 1.000
7.800 1322.000 1.000
7.820 1316.000 1.000
7.840 1294.000 1.000
7.860 1286.000 1.000
7.880 1292.000 1.000
7.900 1279.000 1.000
7.920 1323.000 1.000
7.940 1312.000 1.000
7.960 1271.000 1.000
7.980 1289.000 1.000
8.000 1252.000 1.000
8.020 1264.000 1.000
8.040 1262.000 1.000
8.060 1261.000 1.000
8.080 1253.000 1.000
8.100 1287.000 1.000
8.120 1323.000 1.000
8.140 1296.000 1.000
8.160 1319.000 1.000
8.180 1338.000 1.000
8.200 1293.000 1.000
8.220 1267.000 1.000
8.240 1305.000 1.000
8.260 1286.000 1.000
8.280 1294.000 1.000
8.300 1326.000 1.000
8.320 1320.000 1.000
8.340 1317.000 1.000
8.360 1360.000 1.000
8.380 1312.000 1.000
8.400 1291.000 1.000
8.420 1277.000 1.000
8.440 1267.000 1.000
8.460 1285.000 1.000
8.480 1286.000 1.000
8.500 1307.000 1.000
8.520 1333.000 1.000
8.540 1318.000 1.000
8.560 1277.000 1.000
8.580 1254.000 1.000
8.600 1298.000 1.000
8.620 1291.000 1.000
8.640 1286.000 1.000
8.660 1285.000 1.000
8.680 1299.000 1.000
8.700 1303.000 1.000
8.720 1318.000 1.000
8.740 1295.000 1.000
8.760 1267.000 1.000
8.780 1267.000 1.000
8.800 1291.000 1.000
8.820 1319.000 1.000
8.840 1318.000 1.000
8.860 1287.000 1.000
8.880 1300.000 1.000
8.900 1295.000 1.000
8.920 1299.000 1.000
8.940 1278.000 1.000
8.960 1290.000 1.000
8.980 1293.000 1.000
9.000 1337.000 1.000
9.020 1355.000 1.000
9.040 1281.000 1.000
9.060 1313.000 1.000
9.080 1336.000 1.000
9.100 1306.000 1.000
9.120 1325.000 1.000
9.140 1370.000 1.000
9.160 1387.000 1.000
9.180 1321.000 1.000
9.200 1303.000 1.000
9.220 1320.000 1.000
9.240 1316.000 1.000
9.260 1319.000 1.000
9.280 1321.000 1.000
9.300 1348.000 1.000
9.320 1363.000 1.000
9.340 1355.000 1.000
9.360 1346.000 1.000
9.380 1349.000 1.000
9.400 1340.000 1.000
9.420 1355.000 1.000
9.440 1357.000 1.000
9.460 1333.000 1.000
9.480 1298.000 1.000
9.500 1272.000 1.000
9.520 1266.000 1.000
9.540 1288.000 1.000
9.560 1326.000 1.000
9.580 1353.000 1.000
9.600 1379.000 1.000
9.620 1355.000 1.000
9.640 1356.000 1.000
9.660 1365.000 1.000
9.680 1385.000 1.000
9.700 1395.000 1.000
9.720 1360.000 1.000
9.740 1318.000 1.000
9.760 1290.000 1.000
9.780 1329.000 1.000
9.800 1360.000 1.000
9.820 1315.000 1.000
9.840 1364.000 1.000
9.860 1369.000 1.000
9.880 1400.000 1.000
9.900 1392.000 1.000
9.920 1381.000 1.000
9.940 1364.000 1.000
9.960 1365.000 1.000
9.980 1370.000 1.000
10.000 1376.000 1.000
10.020 1375.000 1.000
10.040 1359.000 1.000
10.060 1395.000 1.000
10.080 1405.000 1.000
10.100 1381.000 1.000
10.120 1363.000 1.000
10.140 1371.000 1.000
10.160 1395.000 1.000
10.180 1385.000 1.000
10.200 1348.000 1.000
10.220 1378.000 1.000
10.240 1426.000 1.000
10.260 1429.000 1.000
10.280 1422.000 1.000
10.300 1384.000 1.000
10.320 1396.000 1.000
10.340 1425.000 1.000
10.360 1427.000 1.000
10.380 1444.000 1.000
10.400 1446.000 1.000
10.420 1392.000 1.000
10.440 1357.000 1.000
10.460 1373.000 1.000
10.480 1431.000 1.000
10.500 1430.000 1.000
10.520 1388.000 1.000
10.540 1398.000 1.000
10.560 1462.000 1.000
10.580 1451.000 1.000
10.600 1435.000 1.000
10.620 1447.000 1.000
10.640 1462.000 1.000
10.660 1426.000 1.000
10.680 1409.000 1.000
10.700 1409.000 1.000
10.720 1433.000 1.000
10.740 1436.000 1.000
10.760 1465.000 1.000
10.780 1447.000 1.000
10.800 1428.000 1.000
10.820 1427.000 1.000
10.840 1417.000 1.000
10.860 1452.000 1.000
10.880 1479.000 1.000
10.900 1450.000 1.000
10.920 1431.000 1.000
10.940 1471.000 1.000
10.960 1463.000 1.000
10.980 1487.000 1.000
11.000 1455.000 1.000
11.020 1440.000 1.000
11.040 1440.000 1.000
11.060 1471.000 1.000
11.080 1480.000 1.000
11.100 1500.000 1.000
11.120 1517.000 1.000
11.140 1436.000 1.000
11.160 1451.000 1.000
11.180 1510.000 1.000
11.200 1483.000 1.000
11.220 1492.000 1.000
11.240 1507.000 1.000
11.260 1479.000 1.000
11.280 1500.000 1.000
11.300 1500.000 1.000
11.320 1514.000 1.000
11.340 1550.000 1.000
11.360 1522.000 1.000
11.380 1526.000 1.000
11.400 1531.000 1.000
11.420 1564.000 1.000
11.440 1527.000 1.000
11.460 1534.000 1.000
11.480 1557.000 1.000
11.500 1525.000 1.000
11.520 1516.000 1.000
11.540 1477.000 1.000
11.560 1472.000 1.000
11.580 1480.000 1.000
11.600 1516.000 1.000
11.620 1565.000 1.000
11.640 1534.000 1.000
11.660 1503.000 1.000
11.680 1503.000 1.000
11.700 1544.000 1.000
11.720 1550.000 1.000
11.740 1574.000 1.000
11.760 1569.000 1.000
11.780 1566.000 1.000
11.800 1502.000 1.000
11.820 1508.000 1.000
11.840 1517.000 1.000
11.860 1566.000 1.000
11.880 1558.000 1.000
11.900 1553.000 1.000
11.920 1524.000 1.000
11.940 1521.000 1.000
11.960 1521.000 1.000
11.980 1552.000 1.000
12.000 1587.000 1.000
12.020 1533.000 1.000
12.040 1509.000 1.000
12.060 1498.000 1.000
12.080 1540.000 1.000
12.100 1555.000 1.000
12.120 1599.000 1.000
12.140 1629.000 1.000
12.160 1582.000 1.000
12.180 1558.000 1.000
12.200 1598.000 1.000
12.220 1604.000 1.000
12.240 1618.000 1.000
12.260 1612.000 1.000
12.280 1639.000 1.000
12.300 1612.000 1.000
12.320 1618.000 1.000
12.340 1582.000 1.000
12.360 1549.000 1.000
12.380 1577.000 1.000
12.400 1567.000 1.000
12.420 1618.000 1.000
12.440 1616.000 1.000
12.460 1592.000 1.000
12.480 1612.000 1.000
12.500 1649.000 1.000
12.520 1614.000 1.000
12.540 1570.000 1.000
12.560 1600.000 1.000
12.580 1574.000 1.000
12.600 1525.000 1.000
12.620 1517.000 1.000
12.640 1550.000 1.000
12.660 1593.000 1.000
12.680 1579.000 1.000
12.700 1578.000 1.000
12.720 1606.000 1.000
12.740 1611.000 1.000
12.760 1550.000 1.000
12.780 1575.000 1.000
12.800 1606.000 1.000
12.820 1596.000 1.000
12.840 1616.000 1.000
12.860 1618.000 1.000
12.880 1605.000 1.000
12.900 1622.000 1.000
12.920 1622.000 1.000
12.940 1628.000 1.000
12.960 1605.000 1.000
12.980 1638.000 1.000
13.000 1626.000 1.000
13.020 1599.000 1.000
13.040 1634.000 1.000
13.060 1629.000 1.000
13.080 1652.000 1.000
13.100 1681.000 1.000
13.120 1614.000 1.000
13.140 1671.000 1.000
13.160 1681.000 1.000
13.180 1661.000 1.000
13.200 1666.000 1.000
13.220 1674.000 1.000
13.240 1636.000 1.000
13.260 1584.000 1.000
13.280 1607.000 1.000
13.300 1626.000 1.000
13.320 1632.000 1.000
13.340 1671.000 1.000
13.360 1704.000 1.000
13.380 1654.000 1.000
13.400 1650.000 1.000
13.420 1664.000 1.000
13.440 1641.000 1.000
13.460 1682.000 1.000
13.480 1677.000 1.000
13.500 1692.000 1.000
13.520 1667.000 1.000
13.540 1638.000 1.000
13.560 1666.000 1.000
13.580 1671.000 1.000
13.600 1626.000 1.000
13.620 1631.000 1.000
13.640 1643.000 1.000
13.660 1662.000 1.000
13.680 1683.000 1.000
13.700 1668.000 1.000
13.720 1668.000 1.000
13.740 1698.000 1.000
13.760 1724.000 1.000
13.780 1722.000 1.000
13.800 1697.000 1.000
13.820 1665.000 1.000
13.840 1684.000 1.000
13.860 1647.000 1.000
13.880 1678.000 1.000
13.900 1690.000 1.000
13.920 1694.000 1.000
13.940 1684.000 1.000
13.960 1662.000 1.000
13.980 1672.000 1.000
14.000 1646.000 1.000
14.020 1693.000 1.000
14.040 1717.000 1.000
14.060 1692.000 1.000
14.080 1681.000 1.000
14.100 1719.000 1.000
14.120 1706.000 1.000
14.140 1675.000 1.000
14.160 1691.000 1.000
14.180 1727.000 1.000
14.200 1735.000 1.000
14.220 1701.000 1.000
14.240 1693.000 1.000
14.260 1685.000 1.000
14.280 1679.000 1.000
14.300 1705.000 1.000
14.320 1760.000 1.000
14.340 1730.000 1.000
14.360 1732.000 1.000
14.380 1724.000 1.000
14.400 1696.000 1.000
14.420 1697.000 1.000
14.440 1720.000 1.000
14.460 1703.000 1.000
14.480 1708.000 1.000
14.500 1721.000 1.000
14.520 1708.000 1.000
14.540 1739.000 1.000
14.560 1725.000 1.000
14.580 1706.000 1.000
14.600 1752.000 1.000
14.620 1691.000 1.000
14.640 1700.000 1.000
14.660 1706.000 1.000
14.680 1710.000 1.000
14.700 1745.000 1.000
14.720 1753.000 1.000
14.740 1756.000 1.000
14.760 1694.000 1.000
14.780 1735.000 1.000
14.800 1745.000 1.000
14.820 1687.000 1.000
14.840 1677.000 1.000
14.860 1704.000 1.000
14.880 1717.000 1.000
14.900 1707.000 1.000
14.920 1668.000 1.000
14.940 1707.000 1.000
14.960 1735.000 1.000
14.980 1735.000 1.000
15.000 1755.000 1.000
15.020 1726.000 1.000
15.040 1716.000 1.000
15.060 1751.000 1.000
15.080 1770.000 1.000
15.100 1784.000 1.000
15.120 1764.000 1.000
15.140 1788.000 1.000
15.160 1781.000 1.000
15.180 1748.000 1.000
15.200 1732.000 1.000
15.220 1767.000 1.000
15.240 1785.000 1.000
15.260 1750.000 1.000
15.280 1757.000 1.000
15.300 1740.000 1.000
15.320 1756.000 1.000
15.340 1767.000 1.000
15.360 1743.000 1.000
15.380 1791.000 1.000
15.400 1789.000 1.000
15.420 1785.000 1.000
15.440 1735.000 1.000
15.460 1726.000 1.000
15.480 1752.000 1.000
15.500 1749.000 1.000
15.520 1779.000 1.000
15.540 1790.000 1.000
