*RAS_DATA_START
*RAS_HEADER_START
*CORR_POS_DB_NAME "C_DteX_ASC-6_15122015"
*CORR_POS_GONIO_RADIUS ""
*CORR_POS_NODE_INDEX01 ""
*CORR_POS_NODE_INDEX02 ""
*CORR_POS_NODE_INDEX03 ""
*CORR_POS_NODE_INDEX04 ""
*CORR_POS_NODE_INDEX05 ""
*CORR_POS_NODE_INDEX06 ""
*CORR_POS_NODE_INDEX07 ""
*CORR_POS_NODE_INDEX08 ""
*CORR_POS_NODE_INDEX09 ""
*CORR_POS_NODE_INDEX10 ""
*CORR_POS_NODE_INDEX11 ""
*CORR_POS_NODE_LABEL01 "Si(111)"
*CORR_POS_NODE_LABEL02 "Si(220)"
*CORR_POS_NODE_LABEL03 "Si(311)"
*CORR_POS_NODE_LABEL04 "Si(400)"
*CORR_POS_NODE_LABEL05 "Si(331)"
*CORR_POS_NODE_LABEL06 "Si(422)"
*CORR_POS_NODE_LABEL07 "Si(511)"
*CORR_POS_NODE_LABEL08 "Si(440)"
*CORR_POS_NODE_LABEL09 "Si(531)"
*CORR_POS_NODE_LABEL10 "Si(620)"
*CORR_POS_NODE_LABEL11 "Si(533)"
*CORR_POS_NODE_POS_CALC01 "28.4137"
*CORR_POS_NODE_POS_CALC02 "47.2707"
*CORR_POS_NODE_POS_CALC03 "56.0883"
*CORR_POS_NODE_POS_CALC04 "69.0934"
*CORR_POS_NODE_POS_CALC05 "76.3385"
*CORR_POS_NODE_POS_CALC06 "87.9915"
*CORR_POS_NODE_POS_CALC07 "94.9137"
*CORR_POS_NODE_POS_CALC08 "106.67"
*CORR_POS_NODE_POS_CALC09 "114.054"
*CORR_POS_NODE_POS_CALC10 "127.508"
*CORR_POS_NODE_POS_CALC11 "136.858"
*CORR_POS_NODE_POS_MEAS01 "28.4844"
*CORR_POS_NODE_POS_MEAS02 "47.3386"
*CORR_POS_NODE_POS_MEAS03 "56.1592"
*CORR_POS_NODE_POS_MEAS04 "69.1708"
*CORR_POS_NODE_POS_MEAS05 "76.4167"
*CORR_POS_NODE_POS_MEAS06 "88.0714"
*CORR_POS_NODE_POS_MEAS07 "94.9948"
*CORR_POS_NODE_POS_MEAS08 "106.756"
*CORR_POS_NODE_POS_MEAS09 "114.134"
*CORR_POS_NODE_POS_MEAS10 "127.59"
*CORR_POS_NODE_POS_MEAS11 "136.946"
*CORR_POS_OPT_ATTR "集中法"
*CORR_POS_PARAM_MU ""
*CORR_POS_PARAM_PL ""
*CORR_POS_SEMODEL_TYPE "0"
*CORR_POS_STANDARD_TYPE ""
*CORR_POS_VALUE_ANALYZER "None"
*CORR_POS_VALUE_CMONO "None"
*CORR_POS_VALUE_IMONO "None"
*CORR_POS_VALUE_IS "0.625deg"
*CORR_POS_VALUE_ISL "10.0mm"
*CORR_POS_VALUE_ISOLLER "2.5deg"
*CORR_POS_VALUE_RS1 "13.0mm"
*CORR_POS_VALUE_RS2 "13.0mm"
*CORR_POS_VALUE_RSOLLER "2.5deg"
*CORR_POS_XG_FOCUS_L ""
*CORR_POS_XG_WAVE_TYPE ""
*CORR_POS_XG_WAVE_VALUE ""
*DISP_FMT_X "%.2f"
*DISP_FMT_Y "%.0f"
*DISP_FULLSCALE "41535.0000000000"
*DISP_LINE_COLOR "255.0000000000"
*DISP_LINE_STYLE "0.0000000000"
*DISP_LINE_WIDTH "0.2500000000"
*DISP_NOTE "Collected Data-1"
*DISP_OFFSET_Y "0.0000000000"
*DISP_PEAKSEARCH_UNIT_Y "cps"
*DISP_RANGE_BOTTOM "0.0000000000"
*DISP_RANGE_LEFT "5.0000000000"
*DISP_RANGE_LOGCUTOFF "0.0100000000"
*DISP_RANGE_RIGHT "90.0000000000"
*DISP_RANGE_TOP "41535.0000000000"
*DISP_SCALE_MODE_Y "0.0000000000"
*DISP_TAB_NAME "Theta/2-Theta"
*DISP_TITLE_Y "Intensity"
*DISP_UNIT_Y "cps"
*DISP_WINDOW_NAME "MSG_MACROENGINE"
*FILE_COMMENT " "
*FILE_MD5 ""
*FILE_MEMO " "
*FILE_OPERATOR "RIGAKU"
*FILE_SAMPLE "ZnOCuCl2"
*FILE_TYPE "RAS_RAW"
*FILE_USERGROUP "System Manager"
*FILE_VERSION "1.0000000000"
*HW_ATTACHMENT_ID "ATT1031"
*HW_ATTACHMENT_NAME "6サンプルチェンジャ|ASC-6"
*HW_COUNTER_ID-0 "CUT0025"
*HW_COUNTER_ID-1 "CUT0020"
*HW_COUNTER_ID-2 "CUT0020"
*HW_COUNTER_ID-3 "CMC0021"
*HW_COUNTER_NAME-0 "D/teX Ultra|D/teX Ultra"
*HW_COUNTER_NAME-1 "None|None"
*HW_COUNTER_NAME-2 "None|None"
*HW_COUNTER_NAME-3 "検出器モノクロメータ|Detector monochromator"
*HW_COUNTER_SELECT_NAME "D/teX Ultra|D/teX Ultra"
*HW_GONIOMETER_ID "GON0070"
*HW_GONIOMETER_NAME "MiniFlex 300/600|MiniFlex 300/600"
*HW_GONIOMETER_RADIUS-0 "79.0"
*HW_GONIOMETER_RADIUS-1 "91.5"
*HW_GONIOMETER_RADIUS-2 "150.0"
*HW_GONIOMETER_RADIUS-3 "0"
*HW_GONIOMETER_RADIUS-4 "103.4"
*HW_GONIOMETER_RADIUS-5 "150.0"
*HW_GONIOMETER_RADIUS-6 "46.6"
*HW_GONIOMETER_RADIUS-7 "160.0"
*HW_I_OPT_ID-0 "ISL0021"
*HW_I_OPT_ID-1 "ISO0021"
*HW_I_OPT_NAME-0 "発散スリット|Divergence slit"
*HW_I_OPT_NAME-1 "入射平行スリット|Incident parallel slit"
*HW_R_ATTENUATER_AUTOMODE "0"
*HW_R_OPT_ID-0 "RSS0021"
*HW_R_OPT_ID-1 "RSO0021"
*HW_R_OPT_ID-2 "RRS0021"
*HW_R_OPT_NAME-0 "散乱スリット|Scattering slit"
*HW_R_OPT_NAME-1 "受光平行スリット|Receiving soller slit"
*HW_R_OPT_NAME-2 "受光スリット|Receiving slit"
*HW_SAMPLE_HOLDER_ID "SMP0000"
*HW_SAMPLE_HOLDER_NAME "無し|None"
*HW_XG_CURRENT_MAX "15"
*HW_XG_CURRENT_MIN "2"
*HW_XG_CURRENT_RESOLUTION "1"
*HW_XG_CURRENT_UNIT "mA"
*HW_XG_FOCUS "1mm x 10mm"
*HW_XG_FOCUS_TYPE "Normal"
*HW_XG_ID ""
*HW_XG_NAME "300W/600W 封入管-B|300W/600W Sealed tube-B"
*HW_XG_TARGET_ATOMIC_NUMBER "29.0000000000"
*HW_XG_TARGET_NAME "Cu"
*HW_XG_TYPE "Hermetic"
*HW_XG_VOLTAGE_MAX "40"
*HW_XG_VOLTAGE_MIN "20"
*HW_XG_VOLTAGE_RESOLUTION "1"
*HW_XG_VOLTAGE_UNIT "kV"
*HW_XG_WATT_MAX "0.600"
*HW_XG_WATT_UNIT "kW"
*HW_XG_WAVE_LENGTH_ALPHA1 "1.540593"
*HW_XG_WAVE_LENGTH_ALPHA2 "1.544414"
*HW_XG_WAVE_LENGTH_BETA "1.392250"
*MEAS_COND_AXIS_NAME-0 "Theta/2-Theta"
*MEAS_COND_AXIS_NAME-1 "Spin"
*MEAS_COND_AXIS_NAME-2 "Change"
*MEAS_COND_AXIS_NAME-3 "Soller(inc.)"
*MEAS_COND_AXIS_NAME-4 "IHS"
*MEAS_COND_AXIS_NAME-5 "DS"
*MEAS_COND_AXIS_NAME-6 "SS"
*MEAS_COND_AXIS_NAME-7 "Soller(rec.)"
*MEAS_COND_AXIS_NAME-8 "RS"
*MEAS_COND_AXIS_NAME-9 "Filter"
*MEAS_COND_AXIS_NAME-10 "Monochromator"
*MEAS_COND_AXIS_NAME-11 "PHA"
*MEAS_COND_AXIS_NAME_INTERNAL-0 "TwoThetaTheta"
*MEAS_COND_AXIS_NAME_INTERNAL-1 "Spin"
*MEAS_COND_AXIS_NAME_INTERNAL-2 "Change"
*MEAS_COND_AXIS_NAME_INTERNAL-3 "IncidentSollerSlit"
*MEAS_COND_AXIS_NAME_INTERNAL-4 "IncidentAxdSlit"
*MEAS_COND_AXIS_NAME_INTERNAL-5 "IncidentSlitBox"
*MEAS_COND_AXIS_NAME_INTERNAL-6 "ReceivingSlitBox1"
*MEAS_COND_AXIS_NAME_INTERNAL-7 "ReceivingSollerSlit"
*MEAS_COND_AXIS_NAME_INTERNAL-8 "ReceivingSlitBox2"
*MEAS_COND_AXIS_NAME_INTERNAL-9 "Filter"
*MEAS_COND_AXIS_NAME_INTERNAL-10 "CounterMonochromator"
*MEAS_COND_AXIS_NAME_INTERNAL-11 "PHA"
*MEAS_COND_AXIS_NAME_MAGICNO-0 "268632064.0000000000"
*MEAS_COND_AXIS_NAME_MAGICNO-1 "16842752.0000000000"
*MEAS_COND_AXIS_NAME_MAGICNO-2 "16842752.0000000000"
*MEAS_COND_AXIS_NAME_MAGICNO-3 "20971521.0000000000"
*MEAS_COND_AXIS_NAME_MAGICNO-4 "22020097.0000000000"
*MEAS_COND_AXIS_NAME_MAGICNO-5 "22020097.0000000000"
*MEAS_COND_AXIS_NAME_MAGICNO-6 "23068673.0000000000"
*MEAS_COND_AXIS_NAME_MAGICNO-7 "20971521.0000000000"
*MEAS_COND_AXIS_NAME_MAGICNO-8 "23068673.0000000000"
*MEAS_COND_AXIS_NAME_MAGICNO-9 "20971521.0000000000"
*MEAS_COND_AXIS_NAME_MAGICNO-10 "20971521.0000000000"
*MEAS_COND_AXIS_NAME_MAGICNO-11 "0.0000000000"
*MEAS_COND_AXIS_OFFSET-0 "0.0000000000"
*MEAS_COND_AXIS_OFFSET-1 "-"
*MEAS_COND_AXIS_OFFSET-2 "-"
*MEAS_COND_AXIS_OFFSET-3 "-"
*MEAS_COND_AXIS_OFFSET-4 "-"
*MEAS_COND_AXIS_OFFSET-5 "-"
*MEAS_COND_AXIS_OFFSET-6 "-"
*MEAS_COND_AXIS_OFFSET-7 "-"
*MEAS_COND_AXIS_OFFSET-8 "-"
*MEAS_COND_AXIS_OFFSET-9 "-"
*MEAS_COND_AXIS_OFFSET-10 "-"
*MEAS_COND_AXIS_OFFSET-11 "-"
*MEAS_COND_AXIS_POSITION-0 "10.0000000000"
*MEAS_COND_AXIS_POSITION-1 "0.0000000000"
*MEAS_COND_AXIS_POSITION-2 "2.0000000000"
*MEAS_COND_AXIS_POSITION-3 "2.5deg"
*MEAS_COND_AXIS_POSITION-4 "10.0mm"
*MEAS_COND_AXIS_POSITION-5 "0.625deg"
*MEAS_COND_AXIS_POSITION-6 "13.0mm"
*MEAS_COND_AXIS_POSITION-7 "2.5deg"
*MEAS_COND_AXIS_POSITION-8 "13.0mm"
*MEAS_COND_AXIS_POSITION-9 "K-beta(x2)"
*MEAS_COND_AXIS_POSITION-10 "None"
*MEAS_COND_AXIS_POSITION-11 "40.0000000000"
*MEAS_COND_AXIS_UNIT-0 "deg"
*MEAS_COND_AXIS_UNIT-1 ""
*MEAS_COND_AXIS_UNIT-2 ""
*MEAS_COND_AXIS_UNIT-3 ""
*MEAS_COND_AXIS_UNIT-4 ""
*MEAS_COND_AXIS_UNIT-5 ""
*MEAS_COND_AXIS_UNIT-6 ""
*MEAS_COND_AXIS_UNIT-7 ""
*MEAS_COND_AXIS_UNIT-8 ""
*MEAS_COND_AXIS_UNIT-9 ""
*MEAS_COND_AXIS_UNIT-10 ""
*MEAS_COND_AXIS_UNIT-11 "div"
*MEAS_COND_CORRECTION_SLIT_COUNTERMONO "None"
*MEAS_COND_CORRECTION_SLIT_DS "0.625deg"
*MEAS_COND_CORRECTION_SLIT_FILTER "None"
*MEAS_COND_CORRECTION_SLIT_IHS "10.0mm"
*MEAS_COND_CORRECTION_SLIT_RS "13.0mm"
*MEAS_COND_CORRECTION_SLIT_SOLLER_INC "2.5deg"
*MEAS_COND_CORRECTION_SLIT_SOLLER_REC "2.5deg"
*MEAS_COND_CORRECTION_SLIT_SS "13.0mm"
*MEAS_COND_COUNTER_CNTLOSS_CORR "0.0000000000"
*MEAS_COND_COUNTER_PHABASE "40.0000000000"
*MEAS_COND_COUNTER_PHAWINDOW "15.0000000000"
*MEAS_COND_COUNTER_PHA_UNIT "div"
*MEAS_COND_COUNTER_TAUDIFF "0.2500000000"
*MEAS_COND_COUNTER_TAUINT "0.7500000000"
*MEAS_COND_IRRADIATION_MODE "OFF"
*MEAS_COND_IRRADIATION_WIDTH ""
*MEAS_COND_OPT_ATTR " "
*MEAS_COND_OPT_NAME ""
*MEAS_COND_UNSYMMETRIC_MODE "OFF"
*MEAS_COND_XG_CURRENT "15.0000000000"
*MEAS_COND_XG_VOLTAGE "40.0000000000"
*MEAS_COND_XG_WAVE_TYPE "Ka"
*MEAS_DATA_COUNT "4251.0000000000"
*MEAS_SCAN_AXIS_X "Theta/2-Theta"
*MEAS_SCAN_AXIS_X_INTERNAL "TwoThetaTheta"
*MEAS_SCAN_END_TIME "03/03/17 15:18:00"
*MEAS_SCAN_MODE "CONTINUOUS"
*MEAS_SCAN_MONITOR "0"
*MEAS_SCAN_RESOLUTION_X "0.005"
*MEAS_SCAN_SPEED "5.000"
*MEAS_SCAN_SPEED_UNIT "deg/min"
*MEAS_SCAN_START "5.0000000000"
*MEAS_SCAN_START_TIME "03/03/17 14:59:44"
*MEAS_SCAN_STEP "0.0200000000"
*MEAS_SCAN_STOP "90.0000000000"
*MEAS_SCAN_UNIT_X "deg"
*MEAS_SCAN_UNIT_Y "counts"
*SLIT_SYSTEM "0"
*RAS_HEADER_END
*RAS_INT_START
5.000 633.000 1.000
5.020 597.000 1.000
5.040 615.000 1.000
5.060 638.000 1.000
5.080 621.000 1.000
5.100 604.000 1.000
5.120 600.000 1.000
5.140 630.000 1.000
5.160 626.000 1.000
5.180 600.000 1.000
5.200 627.000 1.000
5.220 637.000 1.000
5.240 641.000 1.000
5.260 630.000 1.000
5.280 605.000 1.000
5.300 590.000 1.000
5.320 602.000 1.000
5.340 629.000 1.000
5.360 636.000 1.000
5.380 644.000 1.000
5.400 641.000 1.000
5.420 636.000 1.000
5.440 649.000 1.000
5.460 609.000 1.000
5.480 612.000 1.000
5.500 625.000 1.000
5.520 626.000 1.000
5.540 619.000 1.000
5.560 631.000 1.000
5.580 582.000 1.000
5.600 552.000 1.000
5.620 593.000 1.000
5.640 611.000 1.000
5.660 599.000 1.000
5.680 612.000 1.000
5.700 603.000 1.000
5.720 586.000 1.000
5.740 589.000 1.000
5.760 569.000 1.000
5.780 583.000 1.000
5.800 581.000 1.000
5.820 592.000 1.000
5.840 584.000 1.000
5.860 606.000 1.000
5.880 584.000 1.000
5.900 552.000 1.000
5.920 569.000 1.000
5.940 599.000 1.000
5.960 594.000 1.000
5.980 592.000 1.000
6.000 610.000 1.000
6.020 603.000 1.000
6.040 594.000 1.000
6.060 607.000 1.000
6.080 585.000 1.000
6.100 560.000 1.000
6.120 551.000 1.000
6.140 578.000 1.000
6.160 591.000 1.000
6.180 568.000 1.000
6.200 545.000 1.000
6.220 558.000 1.000
6.240 576.000 1.000
6.260 546.000 1.000
6.280 538.000 1.000
6.300 554.000 1.000
6.320 572.000 1.000
6.340 573.000 1.000
6.360 561.000 1.000
6.380 546.000 1.000
6.400 566.000 1.000
6.420 580.000 1.000
6.440 573.000 1.000
6.460 570.000 1.000
6.480 587.000 1.000
6.500 565.000 1.000
6.520 583.000 1.000
6.540 594.000 1.000
6.560 578.000 1.000
6.580 546.000 1.000
6.600 560.000 1.000
6.620 569.000 1.000
6.640 586.000 1.000
6.660 588.000 1.000
6.680 535.000 1.000
6.700 544.000 1.000
6.720 550.000 1.000
6.740 567.000 1.000
6.760 593.000 1.000
6.780 591.000 1.000
6.800 545.000 1.000
6.820 533.000 1.000
6.840 535.000 1.000
6.860 568.000 1.000
6.880 571.000 1.000
6.900 563.000 1.000
6.920 580.000 1.000
6.940 573.000 1.000
6.960 552.000 1.000
6.980 554.000 1.000
7.000 554.000 1.000
7.020 543.000 1.000
7.040 539.000 1.000
7.060 536.000 1.000
7.080 540.000 1.000
7.100 583.000 1.000
7.120 550.000 1.000
7.140 523.000 1.000
7.160 549.000 1.000
7.180 578.000 1.000
7.200 573.000 1.000
7.220 559.000 1.000
7.240 548.000 1.000
7.260 553.000 1.000
7.280 540.000 1.000
7.300 531.000 1.000
7.320 563.000 1.000
7.340 564.000 1.000
7.360 548.000 1.000
7.380 544.000 1.000
7.400 525.000 1.000
7.420 519.000 1.000
7.440 520.000 1.000
7.460 553.000 1.000
7.480 553.000 1.000
7.500 553.000 1.000
7.520 571.000 1.000
7.540 598.000 1.000
7.560 578.000 1.000
7.580 551.000 1.000
7.600 574.000 1.000
7.620 575.000 1.000
7.640 534.000 1.000
7.660 535.000 1.000
7.680 535.000 1.000
7.700 539.000 1.000
7.720 555.000 1.000
7.740 533.000 1.000
7.760 526.000 1.000
7.780 543.000 1.000
7.800 547.000 1.000
7.820 548.000 1.000
7.840 535.000 1.000
7.860 549.000 1.000
7.880 544.000 1.000
7.900 544.000 1.000
7.920 587.000 1.000
7.940 568.000 1.000
7.960 532.000 1.000
7.980 535.000 1.000
8.000 534.000 1.000
8.020 528.000 1.000
8.040 550.000 1.000
8.060 528.000 1.000
8.080 543.000 1.000
8.100 559.000 1.000
8.120 520.000 1.000
8.140 528.000 1.000
8.160 541.000 1.000
8.180 549.000 1.000
8.200 565.000 1.000
8.220 570.000 1.000
8.240 545.000 1.000
8.260 543.000 1.000
8.280 529.000 1.000
8.300 540.000 1.000
8.320 548.000 1.000
8.340 538.000 1.000
8.360 531.000 1.000
8.380 528.000 1.000
8.400 551.000 1.000
8.420 554.000 1.000
8.440 528.000 1.000
8.460 573.000 1.000
8.480 571.000 1.000
8.500 557.000 1.000
8.520 573.000 1.000
8.540 561.000 1.000
8.560 536.000 1.000
8.580 519.000 1.000
8.600 549.000 1.000
8.620 551.000 1.000
8.640 536.000 1.000
8.660 549.000 1.000
8.680 541.000 1.000
8.700 540.000 1.000
8.720 552.000 1.000
8.740 539.000 1.000
8.760 552.000 1.000
8.780 558.000 1.000
8.800 586.000 1.000
8.820 603.000 1.000
8.840 563.000 1.000
8.860 579.000 1.000
8.880 565.000 1.000
8.900 529.000 1.000
8.920 540.000 1.000
8.940 540.000 1.000
8.960 576.000 1.000
8.980 561.000 1.000
9.000 568.000 1.000
9.020 585.000 1.000
9.040 565.000 1.000
9.060 547.000 1.000
9.080 541.000 1.000
9.100 559.000 1.000
9.120 567.000 1.000
9.140 564.000 1.000
9.160 558.000 1.000
9.180 561.000 1.000
9.200 556.000 1.000
9.220 541.000 1.000
9.240 533.000 1.000
9.260 557.000 1.000
9.280 572.000 1.000
9.300 556.000 1.000
9.320 539.000 1.000
9.340 552.000 1.000
9.360 587.000 1.000
9.380 547.000 1.000
9.400 533.000 1.000
9.420 562.000 1.000
9.440 562.000 1.000
9.460 570.000 1.000
9.480 571.000 1.000
9.500 532.000 1.000
9.520 540.000 1.000
9.540 565.000 1.000
9.560 572.000 1.000
9.580 556.000 1.000
9.600 564.000 1.000
9.620 573.000 1.000
9.640 584.000 1.000
9.660 568.000 1.000
9.680 558.000 1.000
9.700 562.000 1.000
9.720 567.000 1.000
9.740 561.000 1.000
9.760 561.000 1.000
9.780 558.000 1.000
9.800 564.000 1.000
9.820 586.000 1.000
9.840 572.000 1.000
9.860 576.000 1.000
9.880 589.000 1.000
9.900 557.000 1.000
9.920 546.000 1.000
9.940 577.000 1.000
9.960 570.000 1.000
9.980 570.000 1.000
10.000 570.000 1.000
10.020 582.000 1.000
10.040 577.000 1.000
10.060 571.000 1.000
10.080 567.000 1.000
10.100 555.000 1.000
10.120 555.000 1.000
10.140 557.000 1.000
10.160 563.000 1.000
10.180 567.000 1.000
10.200 551.000 1.000
10.220 568.000 1.000
10.240 547.000 1.000
10.260 583.000 1.000
10.280 574.000 1.000
10.300 563.000 1.000
10.320 570.000 1.000
10.340 586.000 1.000
10.360 590.000 1.000
10.380 585.000 1.000
10.400 590.000 1.000
10.420 562.000 1.000
10.440 583.000 1.000
10.460 596.000 1.000
10.480 564.000 1.000
10.500 570.000 1.000
10.520 573.000 1.000
10.540 613.000 1.000
10.560 622.000 1.000
10.580 581.000 1.000
10.600 596.000 1.000
10.620 621.000 1.000
10.640 602.000 1.000
10.660 569.000 1.000
10.680 562.000 1.000
10.700 593.000 1.000
10.720 606.000 1.000
10.740 582.000 1.000
10.760 585.000 1.000
10.780 597.000 1.000
10.800 596.000 1.000
10.820 614.000 1.000
10.840 603.000 1.000
10.860 586.000 1.000
10.880 556.000 1.000
10.900 580.000 1.000
10.920 610.000 1.000
10.940 597.000 1.000
10.960 597.000 1.000
10.980 615.000 1.000
11.000 602.000 1.000
11.020 590.000 1.000
11.040 581.000 1.000
11.060 599.000 1.000
11.080 623.000 1.000
11.100 609.000 1.000
11.120 589.000 1.000
11.140 606.000 1.000
11.160 596.000 1.000
11.180 616.000 1.000
11.200 643.000 1.000
11.220 623.000 1.000
11.240 605.000 1.000
11.260 644.000 1.000
11.280 654.000 1.000
11.300 633.000 1.000
11.320 626.000 1.000
11.340 599.000 1.000
11.360 602.000 1.000
11.380 606.000 1.000
11.400 592.000 1.000
11.420 608.000 1.000
11.440 620.000 1.000
11.460 617.000 1.000
11.480 607.000 1.000
11.500 597.000 1.000
11.520 606.000 1.000
11.540 612.000 1.000
11.560 604.000 1.000
11.580 600.000 1.000
11.600 613.000 1.000
11.620 602.000 1.000
11.640 604.000 1.000
11.660 607.000 1.000
11.680 614.000 1.000
11.700 616.000 1.000
11.720 640.000 1.000
11.740 626.000 1.000
11.760 621.000 1.000
11.780 609.000 1.000
11.800 635.000 1.000
11.820 625.000 1.000
11.840 644.000 1.000
11.860 613.000 1.000
11.880 646.000 1.000
11.900 625.000 1.000
11.920 608.000 1.000
11.940 641.000 1.000
11.960 621.000 1.000
11.980 630.000 1.000
12.000 615.000 1.000
12.020 608.000 1.000
12.040 608.000 1.000
12.060 592.000 1.000
12.080 605.000 1.000
12.100 613.000 1.000
12.120 638.000 1.000
12.140 658.000 1.000
12.160 652.000 1.000
12.180 631.000 1.000
12.200 628.000 1.000
12.220 650.000 1.000
12.240 647.000 1.000
12.260 652.000 1.000
12.280 675.000 1.000
12.300 634.000 1.000
12.320 621.000 1.000
12.340 608.000 1.000
12.360 630.000 1.000
12.380 634.000 1.000
12.400 647.000 1.000
12.420 647.000 1.000
12.440 651.000 1.000
12.460 647.000 1.000
12.480 634.000 1.000
12.500 640.000 1.000
12.520 614.000 1.000
12.540 627.000 1.000
12.560 645.000 1.000
12.580 658.000 1.000
12.600 654.000 1.000
12.620 634.000 1.000
12.640 629.000 1.000
12.660 633.000 1.000
12.680 647.000 1.000
12.700 679.000 1.000
12.720 672.000 1.000
12.740 628.000 1.000
12.760 653.000 1.000
12.780 674.000 1.000
12.800 658.000 1.000
12.820 657.000 1.000
12.840 666.000 1.000
12.860 655.000 1.000
12.880 673.000 1.000
12.900 636.000 1.000
12.920 629.000 1.000
12.940 635.000 1.000
12.960 636.000 1.000
12.980 644.000 1.000
13.000 667.000 1.000
13.020 655.000 1.000
13.040 664.000 1.000
13.060 658.000 1.000
13.080 642.000 1.000
13.100 625.000 1.000
13.120 651.000 1.000
13.140 643.000 1.000
13.160 632.000 1.000
13.180 660.000 1.000
13.200 632.000 1.000
13.220 643.000 1.000
13.240 630.000 1.000
13.260 631.000 1.000
13.280 638.000 1.000
13.300 632.000 1.000
13.320 631.000 1.000
13.340 639.000 1.000
13.360 660.000 1.000
13.380 670.000 1.000
13.400 645.000 1.000
13.420 647.000 1.000
13.440 644.000 1.000
13.460 640.000 1.000
13.480 645.000 1.000
13.500 657.000 1.000
13.520 652.000 1.000
13.540 658.000 1.000
13.560 665.000 1.000
13.580 647.000 1.000
13.600 633.000 1.000
13.620 620.000 1.000
13.640 614.000 1.000
13.660 642.000 1.000
13.680 634.000 1.000
13.700 640.000 1.000
13.720 635.000 1.000
13.740 641.000 1.000
13.760 672.000 1.000
13.780 660.000 1.000
13.800 674.000 1.000
13.820 642.000 1.000
13.840 676.000 1.000
13.860 697.000 1.000
13.880 639.000 1.000
13.900 639.000 1.000
13.920 632.000 1.000
13.940 634.000 1.000
13.960 649.000 1.000
13.980 631.000 1.000
14.000 620.000 1.000
14.020 642.000 1.000
14.040 661.000 1.000
14.060 683.000 1.000
14.080 675.000 1.000
14.100 676.000 1.000
14.120 679.000 1.000
14.140 707.000 1.000
14.160 699.000 1.000
14.180 658.000 1.000
14.200 649.000 1.000
14.220 661.000 1.000
14.240 688.000 1.000
14.260 680.000 1.000
14.280 665.000 1.000
14.300 669.000 1.000
14.320 679.000 1.000
14.340 656.000 1.000
14.360 670.000 1.000
14.380 661.000 1.000
14.400 635.000 1.000
14.420 633.000 1.000
14.440 664.000 1.000
14.460 657.000 1.000
14.480 680.000 1.000
14.500 677.000 1.000
14.520 675.000 1.000
14.540 690.000 1.000
14.560 677.000 1.000
14.580 690.000 1.000
14.600 704.000 1.000
14.620 681.000 1.000
14.640 698.000 1.000
14.660 689.000 1.000
14.680 680.000 1.000
14.700 697.000 1.000
14.720 728.000 1.000
14.740 713.000 1.000
14.760 701.000 1.000
14.780 692.000 1.000
14.800 696.000 1.000
14.820 717.000 1.000
14.840 717.000 1.000
14.860 681.000 1.000
14.880 674.000 1.000
14.900 693.000 1.000
14.920 726.000 1.000
14.940 726.000 1.000
14.960 719.000 1.000
14.980 713.000 1.000
15.000 719.000 1.000
15.020 776.000 1.000
15.040 767.000 1.000
15.060 756.000 1.000
15.080 809.000 1.000
15.100 867.000 1.000
15.120 901.000 1.000
15.140 975.000 1.000
15.160 1083.000 1.000
15.180 1219.000 1.000
15.200 1408.000 1.000
15.220 1605.000 1.000
15.240 1755.000 1.000
15.260 1765.000 1.000
15.280 1741.000 1.000
15.300 1697.000 1.000
15.320 1597.000 1.000
15.340 1425.000 1.000
15.360 1242.000 1.000
15.380 1121.000 1.000
15.400 995.000 1.000
15.420 902.000 1.000
15.440 862.000 1.000
15.460 824.000 1.000
15.480 787.000 1.000
15.500 764.000 1.000
15.520 758.000 1.000
15.540 727.000 1.000
15.560 701.000 1.000
15.580 697.000 1.000
15.600 734.000 1.000
15.620 719.000 1.000
15.640 696.000 1.000
15.660 718.000 1.000
15.680 725.000 1.000
15.700 719.000 1.000
15.720 727.000 1.000
15.740 739.000 1.000
15.760 691.000 1.000
15.780 673.000 1.000
15.800 680.000 1.000
15.820 664.000 1.000
15.840 671.000 1.000
15.860 713.000 1.000
15.880 695.000 1.000
15.900 689.000 1.000
15.920 709.000 1.000
15.940 711.000 1.000
15.960 679.000 1.000
15.980 695.000 1.000
16.000 698.000 1.000
16.020 739.000 1.000
16.040 746.000 1.000
